TBJ_JFET  -THD
Vin = 0.04*sen(2*PI*1000.0*t) + 0.04*sen(2*PI*1200.0*t)
Is = 1.00e-11  Idss = 2.00
Vt = 0.026     Vp   = -2.00
Tensiones de polarizaci√≥n
Vbe = 0.790
Vgs = -0.600

t [s]   	Vin [V] 	Ic [mA] 	Id [mA] 	
 0.000000	 0.000000	 156.989563	 0.980000
 0.000025	 0.013753	 266.420166	 0.985596
 0.000050	 0.027086	 444.910797	 0.991201
 0.000075	 0.039593	 719.760803	 0.996621
 0.000100	 0.050893	 1111.612061	 1.001652
 0.000125	 0.060645	 1617.502197	 1.006097
 0.000150	 0.068554	 2192.570312	 1.009771
 0.000175	 0.074384	 2743.687988	 1.012520
 0.000200	 0.077963	 3148.696045	 1.014224
 0.000225	 0.079192	 3301.084473	 1.014812
 0.000250	 0.078042	 3158.273926	 1.014262
 0.000275	 0.074560	 2762.355469	 1.012604
 0.000300	 0.068863	 2218.796631	 1.009916
 0.000325	 0.061137	 1648.429565	 1.006324
 0.000350	 0.051631	 1143.605225	 1.001985
 0.000375	 0.040645	 749.494995	 0.997084
 0.000400	 0.028525	 470.234924	 0.991817
 0.000425	 0.015648	 286.569275	 0.986382
 0.000450	 0.002413	 172.256836	 0.980968
 0.000475	-0.010774	 103.743065	 0.975749
 0.000500	-0.023511	 63.578484	 0.970872
 0.000525	-0.035416	 40.242001	 0.966461
 0.000550	-0.046134	 26.670094	 0.962611
 0.000575	-0.055350	 18.732759	 0.959392
 0.000600	-0.062803	 14.085666	 0.956851
 0.000625	-0.068284	 11.425638	 0.955018
 0.000650	-0.071652	 10.049115	 0.953906
 0.000675	-0.072831	 9.607884	 0.953520
 0.000700	-0.071815	 9.986802	 0.953853
 0.000725	-0.068666	 11.260279	 0.954891
 0.000750	-0.063512	 13.709245	 0.956612
 0.000775	-0.056539	 17.899448	 0.958983
 0.000800	-0.047990	 24.837154	 0.961955
 0.000825	-0.038152	 36.228378	 0.965467
 0.000850	-0.027348	 54.863354	 0.969435
 0.000875	-0.015924	 85.106972	 0.973757
 0.000900	-0.004242	 133.362885	 0.978312
 0.000925	 0.007337	 208.166412	 0.982962
 0.000950	 0.018460	 319.291534	 0.987554
 0.000975	 0.028795	 475.137482	 0.991932
 0.001000	 0.038042	 678.088745	 0.995940
 0.001025	 0.045942	 918.847290	 0.999432
 0.001050	 0.052282	 1172.583130	 1.002279
 0.001075	 0.056903	 1400.673828	 1.004380
 0.001100	 0.059704	 1560.037354	 1.005664
 0.001125	 0.060645	 1617.504761	 1.006097
 0.001150	 0.059743	 1562.332275	 1.005682
 0.001175	 0.057073	 1409.898804	 1.004458
 0.001200	 0.052767	 1194.704224	 1.002499
 0.001225	 0.047003	 957.132812	 0.999906
 0.001250	 0.040000	 731.137512	 0.996800
 0.001275	 0.032013	 537.742249	 0.993318
 0.001300	 0.023318	 384.889801	 0.989599
 0.001325	 0.014208	 271.124634	 0.985784
 0.001350	 0.004979	 190.122299	 0.982004
 0.001375	-0.004076	 134.215546	 0.978378
 0.001400	-0.012681	 96.406723	 0.975008
 0.001425	-0.020583	 71.151253	 0.971979
 0.001450	-0.027560	 54.417679	 0.969356
 0.001475	-0.033427	 43.436607	 0.967188
 0.001500	-0.038042	 36.381973	 0.965507
 0.001525	-0.041309	 32.093155	 0.964329
 0.001550	-0.043181	 29.868786	 0.963660
 0.001575	-0.043657	 29.328773	 0.963490
 0.001600	-0.042782	 30.330118	 0.963802
 0.001625	-0.040645	 32.921894	 0.964568
 0.001650	-0.037374	 37.326576	 0.965749
 0.001675	-0.033129	 43.936172	 0.967297
 0.001700	-0.028095	 53.309906	 0.969157
 0.001725	-0.022477	 66.156357	 0.971262
 0.001750	-0.016489	 83.277344	 0.973540
 0.001775	-0.010349	 105.448441	 0.975914
 0.001800	-0.004270	 133.218231	 0.978301
 0.001825	 0.001550	 166.632706	 0.980621
 0.001850	 0.006930	 204.934998	 0.982796
 0.001875	 0.011715	 246.341034	 0.984755
 0.001900	 0.015780	 288.021179	 0.986436
 0.001925	 0.019031	 326.387817	 0.987794
 0.001950	 0.021412	 357.689575	 0.988794
 0.001975	 0.022901	 378.772461	 0.989423
 0.002000	 0.023511	 387.766296	 0.989681
 0.002025	 0.023289	 384.458344	 0.989587
 0.002050	 0.022308	 370.234497	 0.989172
 0.002075	 0.020672	 347.643585	 0.988482
 0.002100	 0.018498	 319.769043	 0.987570
 0.002125	 0.015924	 289.624451	 0.986496
 0.002150	 0.013091	 259.725983	 0.985322
 0.002175	 0.010144	 231.893753	 0.984109
 0.002200	 0.007222	 207.248779	 0.982915
 0.002225	 0.004456	 186.331497	 0.981792
 0.002250	 0.001958	 169.267334	 0.980785
 0.002275	-0.000177	 155.926132	 0.979929
 0.002300	-0.001879	 146.048584	 0.979250
 0.002325	-0.003103	 139.331924	 0.978764
 0.002350	-0.003832	 135.478180	 0.978474
 0.002375	-0.004076	 134.212570	 0.978378
 0.002400	-0.003871	 135.279221	 0.978459
 0.002425	-0.003274	 138.420471	 0.978696
 0.002450	-0.002364	 143.344986	 0.979057
 0.002475	-0.001238	 149.690353	 0.979506
 0.002500	-0.000000	 156.988205	 0.980000
 0.002525	 0.001238	 164.642090	 0.980496
 0.002550	 0.002364	 171.930954	 0.980948
 0.002575	 0.003273	 178.048752	 0.981315
 0.002600	 0.003870	 182.184418	 0.981556
 0.002625	 0.004076	 183.633545	 0.981639
 0.002650	 0.003832	 181.919083	 0.981540
 0.002675	 0.003103	 176.888214	 0.981246
 0.002700	 0.001879	 168.753891	 0.980753
 0.002725	 0.000177	 158.064468	 0.980071
 0.002750	-0.001957	 145.607330	 0.979219
 0.002775	-0.004455	 132.274307	 0.978228
 0.002800	-0.007221	 118.926346	 0.977138
 0.002825	-0.010143	 106.290085	 0.975994
 0.002850	-0.013090	 94.903389	 0.974850
 0.002875	-0.015923	 85.109909	 0.973758
 0.002900	-0.018498	 77.090111	 0.972772
 0.002925	-0.020671	 70.912003	 0.971945
 0.002950	-0.022308	 66.587402	 0.971326
 0.002975	-0.023288	 64.125008	 0.970956
 0.003000	-0.023511	 63.577686	 0.970872
 0.003025	-0.022902	 65.085396	 0.971102
 0.003050	-0.021413	 68.917992	 0.971664
 0.003075	-0.019032	 75.522240	 0.972568
 0.003100	-0.015781	 85.575890	 0.973812
 0.003125	-0.011717	 100.047989	 0.975382
 0.003150	-0.006932	 120.255554	 0.977251
 0.003175	-0.001552	 147.893143	 0.979380
 0.003200	 0.004268	 184.988998	 0.981716
 0.003225	 0.010347	 233.715714	 0.984192
 0.003250	 0.016487	 295.964661	 0.986731
 0.003275	 0.022475	 372.611542	 0.989242
 0.003300	 0.028093	 462.491791	 0.991632
 0.003325	 0.033127	 561.297668	 0.993800
 0.003350	 0.037373	 660.862549	 0.995648
 0.003375	 0.040644	 749.468445	 0.997084
 0.003400	 0.042781	 813.670410	 0.998028
 0.003425	 0.043657	 841.532349	 0.998416
 0.003450	 0.043182	 826.297791	 0.998205
 0.003475	 0.041310	 768.919067	 0.997377
 0.003500	 0.038043	 678.123840	 0.995941
 0.003525	 0.033429	 567.840027	 0.993930
 0.003550	 0.027562	 453.141602	 0.991405
 0.003575	 0.020586	 346.500427	 0.988446
 0.003600	 0.012684	 255.693497	 0.985154
 0.003625	 0.004079	 183.651978	 0.981640
 0.003650	-0.004976	 129.648956	 0.978022
 0.003675	-0.014204	 90.922859	 0.974419
 0.003700	-0.023315	 64.060562	 0.970946
 0.003725	-0.032010	 45.866459	 0.967708
 0.003750	-0.039998	 33.750412	 0.964801
 0.003775	-0.047001	 25.797560	 0.962304
 0.003800	-0.052766	 20.682447	 0.960286
 0.003825	-0.057072	 17.537708	 0.958800
 0.003850	-0.059742	 15.834490	 0.957888
 0.003875	-0.060645	 15.296951	 0.957581
 0.003900	-0.059705	 15.856853	 0.957900
 0.003925	-0.056904	 17.650906	 0.958857
 0.003950	-0.052284	 21.068064	 0.960453
 0.003975	-0.045944	 26.864389	 0.962678
 0.004000	-0.038045	 36.377548	 0.965506
 0.004025	-0.028798	 51.889271	 0.968895
 0.004050	-0.018463	 77.191116	 0.972785
 0.004075	-0.007341	 118.378464	 0.977090
 0.004100	 0.004237	 184.772964	 0.981704
 0.004125	 0.015920	 289.575470	 0.986495
 0.004150	 0.027343	 449.344666	 0.991311
 0.004175	 0.038148	 680.864685	 0.995987
 0.004200	 0.047987	 994.031921	 1.000346
 0.004225	 0.056536	 1381.047363	 1.004212
 0.004250	 0.063509	 1805.886230	 1.007420
 0.004275	 0.068665	 2201.955322	 1.009823
 0.004300	 0.071815	 2485.554932	 1.011304
 0.004325	 0.072831	 2584.679688	 1.011785
 0.004350	 0.071653	 2470.152832	 1.011228
 0.004375	 0.068286	 2170.101807	 1.009646
 0.004400	 0.062805	 1757.650024	 1.007094
 0.004425	 0.055354	 1319.661743	 1.003674
 0.004450	 0.046138	 925.794312	 0.999519
 0.004475	 0.035420	 613.050110	 0.994796
 0.004500	 0.023516	 387.837433	 0.989683
 0.004525	 0.010779	 237.627426	 0.984370
 0.004550	-0.002408	 143.105713	 0.979040
 0.004575	-0.015643	 86.031403	 0.973865
 0.004600	-0.028520	 52.447258	 0.968999
 0.004625	-0.040640	 32.928020	 0.964570
 0.004650	-0.051627	 21.605085	 0.960682
 0.004675	-0.061134	 15.013678	 0.957415
 0.004700	-0.068860	 11.177411	 0.954827
 0.004725	-0.074558	 8.996976	 0.952956
 0.004750	-0.078041	 7.881683	 0.951829
 0.004775	-0.079192	 7.544957	 0.951459
 0.004800	-0.077964	 7.904746	 0.951853
 0.004825	-0.074386	 9.056151	 0.953012
 0.004850	-0.068557	 11.307503	 0.954927
 0.004875	-0.060649	 15.294765	 0.957580
 0.004900	-0.050898	 22.217182	 0.960936
 0.004925	-0.039598	 34.272499	 0.964945
 0.004950	-0.027091	 55.406559	 0.969530
 0.004975	-0.013759	 92.495018	 0.974591
 0.005000	-0.000006	 156.953339	 0.979998
 0.005025	 0.013747	 266.359406	 0.985593
 0.005050	 0.027080	 444.813629	 0.991199
 0.005075	 0.039587	 719.615356	 0.996619
 0.005100	 0.050889	 1111.412720	 1.001650
 0.005125	 0.060641	 1617.257935	 1.006095
 0.005150	 0.068551	 2192.312012	 1.009770
 0.005175	 0.074381	 2743.465332	 1.012519
 0.005200	 0.077962	 3148.565186	 1.014224
 0.005225	 0.079192	 3301.081787	 1.014812
 0.005250	 0.078043	 3158.401611	 1.014263
 0.005275	 0.074562	 2762.576416	 1.012604
 0.005300	 0.068866	 2219.057373	 1.009918
 0.005325	 0.061141	 1648.678711	 1.006326
 0.005350	 0.051636	 1143.811401	 1.001987
 0.005375	 0.040650	 749.647705	 0.997086
 0.005400	 0.028531	 470.338928	 0.991819
 0.005425	 0.015654	 286.635620	 0.986384
 0.005450	 0.002419	 172.297272	 0.980971
 0.005475	-0.010768	 103.767021	 0.975751
 0.005500	-0.023505	 63.592468	 0.970874
 0.005525	-0.035411	 40.250168	 0.966463
 0.005550	-0.046129	 26.674877	 0.962612
 0.005575	-0.055347	 18.735579	 0.959393
 0.005600	-0.062800	 14.087315	 0.956852
 0.005625	-0.068282	 11.426554	 0.955018
 0.005650	-0.071651	 10.049532	 0.953907
 0.005675	-0.072831	 9.607898	 0.953520
 0.005700	-0.071816	 9.986420	 0.953852
 0.005725	-0.068668	 11.259412	 0.954890
 0.005750	-0.063515	 13.707695	 0.956611
 0.005775	-0.056543	 17.896841	 0.958981
 0.005800	-0.047995	 24.832840	 0.961954
 0.005825	-0.038157	 36.221272	 0.965465
 0.005850	-0.027353	 54.851704	 0.969433
 0.005875	-0.015930	 85.088089	 0.973755
 0.005900	-0.004247	 133.332932	 0.978310
 0.005925	 0.007331	 208.120605	 0.982959
 0.005950	 0.018454	 319.224823	 0.987552
 0.005975	 0.028790	 475.046509	 0.991930
 0.006000	 0.038038	 677.974426	 0.995938
 0.006025	 0.045938	 918.718628	 0.999430
 0.006050	 0.052279	 1172.457031	 1.002278
 0.006075	 0.056901	 1400.571655	 1.004379
 0.006100	 0.059703	 1559.980103	 1.005664
 0.006125	 0.060645	 1617.504272	 1.006097
 0.006150	 0.059744	 1562.387329	 1.005682
 0.006175	 0.057075	 1409.995483	 1.004459
 0.006200	 0.052770	 1194.822632	 1.002500
 0.006225	 0.047006	 957.253052	 0.999907
 0.006250	 0.040004	 731.245300	 0.996802
 0.006275	 0.032017	 537.830383	 0.993319
 0.006300	 0.023322	 384.957245	 0.989601
 0.006325	 0.014212	 271.173553	 0.985786
 0.006350	 0.004984	 190.156464	 0.982006
 0.006375	-0.004071	 134.238861	 0.978380
 0.006400	-0.012677	 96.422363	 0.975010
 0.006425	-0.020579	 71.161652	 0.971980
 0.006450	-0.027557	 54.424541	 0.969357
 0.006475	-0.033424	 43.441074	 0.967189
 0.006500	-0.038040	 36.384789	 0.965508
 0.006525	-0.041308	 32.094772	 0.964330
 0.006550	-0.043181	 29.869471	 0.963660
 0.006575	-0.043657	 29.328655	 0.963490
 0.006600	-0.042782	 30.329216	 0.963802
 0.006625	-0.040647	 32.920135	 0.964567
 0.006650	-0.037376	 37.323818	 0.965748
 0.006675	-0.033131	 43.932159	 0.967296
 0.006700	-0.028098	 53.304321	 0.969156
 0.006725	-0.022480	 66.148804	 0.971261
 0.006750	-0.016492	 83.267418	 0.973539
 0.006775	-0.010353	 105.435768	 0.975913
 0.006800	-0.004273	 133.202637	 0.978300
 0.006825	 0.001547	 166.614380	 0.980620
 0.006850	 0.006928	 204.914520	 0.982795
 0.006875	 0.011713	 246.319626	 0.984754
 0.006900	 0.015778	 288.000458	 0.986436
 0.006925	 0.019030	 326.369781	 0.987793
 0.006950	 0.021411	 357.676025	 0.988794
 0.006975	 0.022901	 378.764709	 0.989423
 0.007000	 0.023511	 387.764893	 0.989681
 0.007025	 0.023289	 384.462952	 0.989587
 0.007050	 0.022309	 370.244080	 0.989173
 0.007075	 0.020672	 347.656677	 0.988483
 0.007100	 0.018500	 319.784027	 0.987571
 0.007125	 0.015925	 289.639923	 0.986497
 0.007150	 0.013092	 259.740784	 0.985323
 0.007175	 0.010145	 231.907166	 0.984110
 0.007200	 0.007224	 207.260391	 0.982916
 0.007225	 0.004457	 186.341156	 0.981793
 0.007250	 0.001959	 169.275055	 0.980786
 0.007275	-0.000176	 155.932022	 0.979930
 0.007300	-0.001878	 146.052780	 0.979251
 0.007325	-0.003102	 139.334579	 0.978764
 0.007350	-0.003832	 135.479462	 0.978475
 0.007375	-0.004076	 134.212601	 0.978378
 0.007400	-0.003871	 135.278122	 0.978459
 0.007425	-0.003274	 138.418396	 0.978696
 0.007450	-0.002365	 143.342087	 0.979057
 0.007475	-0.001239	 149.686844	 0.979505
 0.007500	-0.000001	 156.984344	 0.980000
 0.007525	 0.001237	 164.638229	 0.980496
 0.007550	 0.002364	 171.927475	 0.980948
 0.007575	 0.003273	 178.046097	 0.981315
 0.007600	 0.003870	 182.182938	 0.981556
 0.007625	 0.004076	 183.633591	 0.981639
 0.007650	 0.003833	 181.920807	 0.981540
 0.007675	 0.003104	 176.891586	 0.981246
 0.007700	 0.001880	 168.758743	 0.980754
 0.007725	 0.000178	 158.070435	 0.980071
 0.007750	-0.001956	 145.613968	 0.979219
 0.007775	-0.004453	 132.281158	 0.978229
 0.007800	-0.007220	 118.933006	 0.977138
 0.007825	-0.010141	 106.296005	 0.975995
 0.007850	-0.013089	 94.908409	 0.974850
 0.007875	-0.015922	 85.113953	 0.973758
 0.007900	-0.018497	 77.093193	 0.972772
 0.007925	-0.020670	 70.914185	 0.971946
 0.007950	-0.022307	 66.588753	 0.971326
 0.007975	-0.023288	 64.125587	 0.970956
 0.008000	-0.023512	 63.577526	 0.970872
 0.008025	-0.022902	 65.084503	 0.971101
 0.008050	-0.021414	 68.916344	 0.971664
 0.008075	-0.019033	 75.519745	 0.972568
 0.008100	-0.015782	 85.572456	 0.973812
 0.008125	-0.011718	 100.043434	 0.975381
 0.008150	-0.006933	 120.249702	 0.977251
 0.008175	-0.001553	 147.885803	 0.979380
 0.008200	 0.004266	 184.980026	 0.981716
 0.008225	 0.010346	 233.705109	 0.984192
 0.008250	 0.016486	 295.952637	 0.986730
 0.008275	 0.022474	 372.598602	 0.989242
 0.008300	 0.028093	 462.478790	 0.991632
 0.008325	 0.033127	 561.285767	 0.993799
 0.008350	 0.037373	 660.853088	 0.995647
 0.008375	 0.040644	 749.462158	 0.997084
 0.008400	 0.042781	 813.667542	 0.998028
 0.008425	 0.043657	 841.532104	 0.998416
 0.008450	 0.043182	 826.298767	 0.998205
 0.008475	 0.041310	 768.919495	 0.997377
 0.008500	 0.038043	 678.122559	 0.995941
 0.008525	 0.033429	 567.836487	 0.993930
 0.008550	 0.027562	 453.135956	 0.991405
 0.008575	 0.020585	 346.493591	 0.988446
 0.008600	 0.012683	 255.686371	 0.985154
 0.008625	 0.004078	 183.645340	 0.981640
 0.008650	-0.004977	 129.643250	 0.978022
 0.008675	-0.014206	 90.918236	 0.974419
 0.008700	-0.023316	 64.056992	 0.970945
 0.008725	-0.032011	 45.863796	 0.967708
 0.008750	-0.039999	 33.748470	 0.964800
 0.008775	-0.047002	 25.796177	 0.962304
 0.008800	-0.052767	 20.681498	 0.960285
 0.008825	-0.057073	 17.537106	 0.958799
 0.008850	-0.059742	 15.834192	 0.957888
 0.008875	-0.060645	 15.296953	 0.957581
 0.008900	-0.059705	 15.857209	 0.957901
 0.008925	-0.056903	 17.651733	 0.958858
 0.008950	-0.052282	 21.069613	 0.960454
 0.008975	-0.045942	 26.867092	 0.962679
 0.009000	-0.038042	 36.382183	 0.965507
 0.009025	-0.028794	 51.897198	 0.968897
 0.009050	-0.018459	 77.204636	 0.972787
 0.009075	-0.007336	 118.401382	 0.977092
 0.009100	 0.004243	 184.811172	 0.981706
 0.009125	 0.015925	 289.637390	 0.986497
 0.009150	 0.027349	 449.440674	 0.991314
 0.009175	 0.038154	 681.004883	 0.995989
 0.009200	 0.047992	 994.220947	 1.000348
 0.009225	 0.056540	 1381.276489	 1.004215
 0.009250	 0.063513	 1806.128418	 1.007422
 0.009275	 0.068667	 2202.164307	 1.009824
 0.009300	 0.071816	 2485.676758	 1.011305
 0.009325	 0.072831	 2584.675293	 1.011785
 0.009350	 0.071652	 2470.012695	 1.011227
 0.009375	 0.068283	 2169.854980	 1.009645
 0.009400	 0.062801	 1757.349976	 1.007092
 0.009425	 0.055348	 1319.363403	 1.003671
 0.009450	 0.046130	 925.537231	 0.999516
 0.009475	 0.035412	 612.851990	 0.994792
 0.009500	 0.023507	 387.697479	 0.989679
 0.009525	 0.010769	 237.534988	 0.984365
 0.009550	-0.002418	 143.047607	 0.979035
 0.009575	-0.015654	 85.996094	 0.973861
 0.009600	-0.028530	 52.426186	 0.968995
 0.009625	-0.040650	 32.915531	 0.964566
 0.009650	-0.051636	 21.597670	 0.960679
 0.009675	-0.061141	 15.009261	 0.957413
 0.009700	-0.068866	 11.174804	 0.954825
 0.009725	-0.074562	 8.995512	 0.952955
 0.009750	-0.078044	 7.881026	 0.951828
 0.009775	-0.079192	 7.544968	 0.951459
 0.009800	-0.077962	 7.905457	 0.951854
 0.009825	-0.074381	 9.057779	 0.953014
 0.009850	-0.068550	 11.310536	 0.954930
 0.009875	-0.060639	 15.300150	 0.957583
 0.009900	-0.050887	 22.226698	 0.960940
 0.009925	-0.039585	 34.289421	 0.964949
 0.009950	-0.027077	 55.436787	 0.969536
 0.009975	-0.013743	 92.548851	 0.974597
 0.010000	 0.000010	 157.047684	 0.980004
 0.010025	 0.013762	 266.519653	 0.985600
 0.010050	 0.027095	 445.073090	 0.991205
 0.010075	 0.039602	 720.008301	 0.996625
 0.010100	 0.050901	 1111.957764	 1.001656
 0.010125	 0.060652	 1617.933594	 1.006100
 0.010150	 0.068559	 2193.035156	 1.009774
 0.010175	 0.074387	 2744.094482	 1.012522
 0.010200	 0.077965	 3148.938721	 1.014225
 0.010225	 0.079192	 3301.088379	 1.014813
 0.010250	 0.078040	 3158.028564	 1.014261
 0.010275	 0.074556	 2761.921631	 1.012602
 0.010300	 0.068857	 2218.277832	 1.009913
 0.010325	 0.061129	 1647.924805	 1.006320
 0.010350	 0.051621	 1143.181274	 1.001981
 0.010375	 0.040634	 749.175781	 0.997079
 0.010400	 0.028513	 470.014374	 0.991812
 0.010425	 0.015635	 286.426361	 0.986376
 0.010450	 0.002400	 172.168381	 0.980963
 0.010475	-0.010787	 103.689903	 0.975743
 0.010500	-0.023524	 63.547005	 0.970867
 0.010525	-0.035428	 40.223438	 0.966456
 0.010550	-0.046144	 26.659098	 0.962607
 0.010575	-0.055360	 18.726213	 0.959388
 0.010600	-0.062810	 14.081800	 0.956849
 0.010625	-0.068289	 11.423463	 0.955016
 0.010650	-0.071655	 10.048122	 0.953905
 0.010675	-0.072831	 9.607852	 0.953520
 0.010700	-0.071813	 9.987737	 0.953853
 0.010725	-0.068661	 11.262410	 0.954893
 0.010750	-0.063504	 13.713093	 0.956615
 0.010775	-0.056529	 17.905977	 0.958986
 0.010800	-0.047979	 24.848043	 0.961959
 0.010825	-0.038139	 36.246460	 0.965472
 0.010850	-0.027333	 54.893253	 0.969440
 0.010875	-0.015909	 85.155823	 0.973763
 0.010900	-0.004226	 133.440933	 0.978318
 0.010925	 0.007352	 208.286804	 0.982968
 0.010950	 0.018474	 319.468262	 0.987560
 0.010975	 0.028808	 475.380371	 0.991938
 0.011000	 0.038054	 678.395752	 0.995946
 0.011025	 0.045952	 919.197449	 0.999436
 0.011050	 0.052289	 1172.931641	 1.002283
 0.011075	 0.056908	 1400.958984	 1.004382
 0.011100	 0.059707	 1560.199219	 1.005665
 0.011125	 0.060645	 1617.505615	 1.006097
 0.011150	 0.059740	 1562.171997	 1.005680
 0.011175	 0.057068	 1409.613281	 1.004456
 0.011200	 0.052760	 1194.351074	 1.002496
 0.011225	 0.046993	 956.769958	 0.999902
 0.011250	 0.039989	 730.808167	 0.996795
 0.011275	 0.032000	 537.469543	 0.993312
 0.011300	 0.023304	 384.679108	 0.989593
 0.011325	 0.014193	 270.970032	 0.985778
 0.011350	 0.004964	 190.012970	 0.981998
 0.011375	-0.004090	 134.140182	 0.978372
 0.011400	-0.012695	 96.355568	 0.975003
 0.011425	-0.020596	 71.116859	 0.971974
 0.011450	-0.027571	 54.394737	 0.969352
 0.011475	-0.033436	 43.421513	 0.967185
 0.011500	-0.038049	 36.372375	 0.965504
 0.011525	-0.041314	 32.087585	 0.964328
 0.011550	-0.043183	 29.866407	 0.963659
 0.011575	-0.043656	 29.329205	 0.963490
 0.011600	-0.042779	 30.333338	 0.963803
 0.011625	-0.040640	 32.928215	 0.964570
 0.011650	-0.037367	 37.336632	 0.965751
 0.011675	-0.033120	 43.950924	 0.967300
 0.011700	-0.028085	 53.330647	 0.969160
 0.011725	-0.022466	 66.184685	 0.971266
 0.011750	-0.016477	 83.314964	 0.973545
 0.011775	-0.010337	 105.496887	 0.975918
 0.011800	-0.004258	 133.278381	 0.978306
 0.011825	 0.001561	 166.704193	 0.980626
